May 24, 2023   19:12:38
Amperometric i-t Curve
File: c:/users/mapence2/desktop/data/2023_05_24\expt1\mix_8\it_1.bin
Data Source:  Experiment
Instrument Model:  CHI760E
Header: CA
Note: 

Init E (V) = 0.7
Sample Interval (s) = 0.1
Run Time (sec) = 30
Quiet Time (sec) = 2
Sensitivity (A/V) = 1e-9

Results:

Channel 1:

Time/sec, Current/A

1.000e-1, -4.055e-10
2.000e-1, -3.999e-10
3.000e-1, -3.948e-10
4.000e-1, -3.900e-10
5.000e-1, -3.855e-10
6.000e-1, -3.816e-10
7.000e-1, -3.777e-10
8.000e-1, -3.741e-10
9.000e-1, -3.708e-10
1.000e+0, -3.676e-10
1.100e+0, -3.648e-10
1.200e+0, -3.621e-10
1.300e+0, -3.595e-10
1.400e+0, -3.570e-10
1.500e+0, -3.545e-10
1.600e+0, -3.523e-10
1.700e+0, -3.503e-10
1.800e+0, -3.483e-10
1.900e+0, -3.462e-10
2.000e+0, -3.443e-10
2.100e+0, -3.426e-10
2.200e+0, -3.409e-10
2.300e+0, -3.392e-10
2.400e+0, -3.377e-10
2.500e+0, -3.362e-10
2.600e+0, -3.348e-10
2.700e+0, -3.335e-10
2.800e+0, -3.323e-10
2.900e+0, -3.312e-10
3.000e+0, -3.301e-10
3.100e+0, -3.290e-10
3.200e+0, -3.279e-10
3.300e+0, -3.268e-10
3.400e+0, -3.258e-10
3.500e+0, -3.248e-10
3.600e+0, -3.239e-10
3.700e+0, -3.230e-10
3.800e+0, -3.219e-10
3.900e+0, -3.208e-10
4.000e+0, -3.198e-10
4.100e+0, -3.187e-10
4.200e+0, -3.176e-10
4.300e+0, -3.166e-10
4.400e+0, -3.156e-10
4.500e+0, -3.148e-10
4.600e+0, -3.140e-10
4.700e+0, -3.133e-10
4.800e+0, -3.127e-10
4.900e+0, -3.120e-10
5.000e+0, -3.113e-10
5.100e+0, -3.106e-10
5.200e+0, -3.100e-10
5.300e+0, -3.093e-10
5.400e+0, -3.087e-10
5.500e+0, -3.082e-10
5.600e+0, -3.076e-10
5.700e+0, -3.072e-10
5.800e+0, -3.068e-10
5.900e+0, -3.064e-10
6.000e+0, -3.058e-10
6.100e+0, -3.052e-10
6.200e+0, -3.048e-10
6.300e+0, -3.043e-10
6.400e+0, -3.039e-10
6.500e+0, -3.034e-10
6.600e+0, -3.030e-10
6.700e+0, -3.027e-10
6.800e+0, -3.024e-10
6.900e+0, -3.018e-10
7.000e+0, -3.014e-10
7.100e+0, -3.010e-10
7.200e+0, -3.007e-10
7.300e+0, -3.004e-10
7.400e+0, -3.001e-10
7.500e+0, -2.998e-10
7.600e+0, -2.993e-10
7.700e+0, -2.990e-10
7.800e+0, -2.986e-10
7.900e+0, -2.982e-10
8.000e+0, -2.978e-10
8.100e+0, -2.973e-10
8.200e+0, -2.969e-10
8.300e+0, -2.966e-10
8.400e+0, -2.964e-10
8.500e+0, -2.962e-10
8.600e+0, -2.956e-10
8.700e+0, -2.950e-10
8.800e+0, -2.945e-10
8.900e+0, -2.941e-10
9.000e+0, -2.938e-10
9.100e+0, -2.935e-10
9.200e+0, -2.932e-10
9.300e+0, -2.930e-10
9.400e+0, -2.928e-10
9.500e+0, -2.925e-10
9.600e+0, -2.923e-10
9.700e+0, -2.921e-10
9.800e+0, -2.918e-10
9.900e+0, -2.912e-10
1.000e+1, -2.908e-10
1.010e+1, -2.904e-10
1.020e+1, -2.902e-10
1.030e+1, -2.898e-10
1.040e+1, -2.896e-10
1.050e+1, -2.893e-10
1.060e+1, -2.890e-10
1.070e+1, -2.889e-10
1.080e+1, -2.885e-10
1.090e+1, -2.882e-10
1.100e+1, -2.878e-10
1.110e+1, -2.875e-10
1.120e+1, -2.874e-10
1.130e+1, -2.875e-10
1.140e+1, -2.870e-10
1.150e+1, -2.863e-10
1.160e+1, -2.859e-10
1.170e+1, -2.856e-10
1.180e+1, -2.853e-10
1.190e+1, -2.851e-10
1.200e+1, -2.845e-10
1.210e+1, -2.848e-10
1.220e+1, -2.845e-10
1.230e+1, -2.838e-10
1.240e+1, -2.837e-10
1.250e+1, -2.835e-10
1.260e+1, -2.834e-10
1.270e+1, -2.832e-10
1.280e+1, -2.833e-10
1.290e+1, -2.833e-10
1.300e+1, -2.834e-10
1.310e+1, -2.833e-10
1.320e+1, -2.831e-10
1.330e+1, -2.830e-10
1.340e+1, -2.829e-10
1.350e+1, -2.826e-10
1.360e+1, -2.825e-10
1.370e+1, -2.825e-10
1.380e+1, -2.828e-10
1.390e+1, -2.824e-10
1.400e+1, -2.820e-10
1.410e+1, -2.818e-10
1.420e+1, -2.822e-10
1.430e+1, -2.821e-10
1.440e+1, -2.821e-10
1.450e+1, -2.822e-10
1.460e+1, -2.825e-10
1.470e+1, -2.824e-10
1.480e+1, -2.825e-10
1.490e+1, -2.826e-10
1.500e+1, -2.826e-10
1.510e+1, -2.827e-10
1.520e+1, -2.830e-10
1.530e+1, -2.830e-10
1.540e+1, -2.829e-10
1.550e+1, -2.826e-10
1.560e+1, -2.826e-10
1.570e+1, -2.824e-10
1.580e+1, -2.822e-10
1.590e+1, -2.822e-10
1.600e+1, -2.821e-10
1.610e+1, -2.819e-10
1.620e+1, -2.817e-10
1.630e+1, -2.816e-10
1.640e+1, -2.815e-10
1.650e+1, -2.813e-10
1.660e+1, -2.813e-10
1.670e+1, -2.811e-10
1.680e+1, -2.810e-10
1.690e+1, -2.809e-10
1.700e+1, -2.808e-10
1.710e+1, -2.806e-10
1.720e+1, -2.805e-10
1.730e+1, -2.803e-10
1.740e+1, -2.801e-10
1.750e+1, -2.799e-10
1.760e+1, -2.797e-10
1.770e+1, -2.794e-10
1.780e+1, -2.793e-10
1.790e+1, -2.791e-10
1.800e+1, -2.790e-10
1.810e+1, -2.787e-10
1.820e+1, -2.785e-10
1.830e+1, -2.783e-10
1.840e+1, -2.781e-10
1.850e+1, -2.779e-10
1.860e+1, -2.777e-10
1.870e+1, -2.775e-10
1.880e+1, -2.774e-10
1.890e+1, -2.772e-10
1.900e+1, -2.770e-10
1.910e+1, -2.768e-10
1.920e+1, -2.767e-10
1.930e+1, -2.765e-10
1.940e+1, -2.764e-10
1.950e+1, -2.762e-10
1.960e+1, -2.761e-10
1.970e+1, -2.759e-10
1.980e+1, -2.758e-10
1.990e+1, -2.757e-10
2.000e+1, -2.756e-10
2.010e+1, -2.756e-10
2.020e+1, -2.756e-10
2.030e+1, -2.754e-10
2.040e+1, -2.752e-10
2.050e+1, -2.752e-10
2.060e+1, -2.750e-10
2.070e+1, -2.750e-10
2.080e+1, -2.749e-10
2.090e+1, -2.746e-10
2.100e+1, -2.743e-10
2.110e+1, -2.740e-10
2.120e+1, -2.738e-10
2.130e+1, -2.736e-10
2.140e+1, -2.734e-10
2.150e+1, -2.733e-10
2.160e+1, -2.733e-10
2.170e+1, -2.732e-10
2.180e+1, -2.732e-10
2.190e+1, -2.728e-10
2.200e+1, -2.724e-10
2.210e+1, -2.722e-10
2.220e+1, -2.723e-10
2.230e+1, -2.723e-10
2.240e+1, -2.721e-10
2.250e+1, -2.719e-10
2.260e+1, -2.717e-10
2.270e+1, -2.716e-10
2.280e+1, -2.715e-10
2.290e+1, -2.714e-10
2.300e+1, -2.712e-10
2.310e+1, -2.711e-10
2.320e+1, -2.711e-10
2.330e+1, -2.709e-10
2.340e+1, -2.706e-10
2.350e+1, -2.703e-10
2.360e+1, -2.701e-10
2.370e+1, -2.700e-10
2.380e+1, -2.699e-10
2.390e+1, -2.696e-10
2.400e+1, -2.696e-10
2.410e+1, -2.694e-10
2.420e+1, -2.694e-10
2.430e+1, -2.693e-10
2.440e+1, -2.691e-10
2.450e+1, -2.690e-10
2.460e+1, -2.690e-10
2.470e+1, -2.690e-10
2.480e+1, -2.692e-10
2.490e+1, -2.694e-10
2.500e+1, -2.691e-10
2.510e+1, -2.687e-10
2.520e+1, -2.686e-10
2.530e+1, -2.689e-10
2.540e+1, -2.695e-10
2.550e+1, -2.695e-10
2.560e+1, -2.693e-10
2.570e+1, -2.690e-10
2.580e+1, -2.689e-10
2.590e+1, -2.687e-10
2.600e+1, -2.685e-10
2.610e+1, -2.682e-10
2.620e+1, -2.679e-10
2.630e+1, -2.678e-10
2.640e+1, -2.676e-10
2.650e+1, -2.676e-10
2.660e+1, -2.675e-10
2.670e+1, -2.676e-10
2.680e+1, -2.676e-10
2.690e+1, -2.675e-10
2.700e+1, -2.675e-10
2.710e+1, -2.676e-10
2.720e+1, -2.677e-10
2.730e+1, -2.678e-10
2.740e+1, -2.679e-10
2.750e+1, -2.680e-10
2.760e+1, -2.681e-10
2.770e+1, -2.681e-10
2.780e+1, -2.682e-10
2.790e+1, -2.682e-10
2.800e+1, -2.683e-10
2.810e+1, -2.683e-10
2.820e+1, -2.684e-10
2.830e+1, -2.683e-10
2.840e+1, -2.683e-10
2.850e+1, -2.682e-10
2.860e+1, -2.682e-10
2.870e+1, -2.681e-10
2.880e+1, -2.681e-10
2.890e+1, -2.681e-10
2.900e+1, -2.681e-10
2.910e+1, -2.679e-10
2.920e+1, -2.680e-10
2.930e+1, -2.678e-10
2.940e+1, -2.678e-10
2.950e+1, -2.677e-10
2.960e+1, -2.677e-10
2.970e+1, -2.676e-10
2.980e+1, -2.675e-10
2.990e+1, -2.673e-10
3.000e+1, -2.674e-10
